File: Amorphous/WPEM-RuMnO/output_xrd/Mn2O3.csv
No.,Dhkl,Mult,2theta/TOF,Intensity
1,4.705,6,18.8925,0.165213
2,3.84162,6,23.1918,0.568621
3,2.9757,12,30.0808,0.457304
4,2.71643,6,33.0302,100.0
5,2.51493,12,35.7624,16.6138
6,2.3525,6,38.3245,13.0039
7,2.21796,6,40.7491,5.93776
8,2.10414,12,43.06,1.08513
9,2.00622,12,45.2752,0.11474
10,1.92081,6,47.4085,0.748673
11,1.84545,12,49.4712,6.3802
12,1.71802,12,53.419,4.81305
13,1.66347,6,55.3179,52.7549
14,1.6138,12,57.1742,2.51725
15,1.56833,12,58.9925,0.404135
16,1.5265,12,60.7767,4.34049
17,1.48785,12,62.5304,0.943091
18,1.45199,12,64.2566,2.69117
19,1.41861,12,65.958,24.5513
20,1.38743,12,67.6372,1.82163
21,1.35822,6,69.2964,1.79214
22,1.33077,12,70.9376,2.33823
23,1.30493,12,72.5627,0.954008
24,1.28054,6,74.1735,2.86446
25,1.25746,12,75.7715,1.34225
26,1.23559,12,77.3583,0.293394