File: Amorphous/WPEM-RuMnO/output_xrd/Mn2O3_extinction.csv
,H,K,L,Distance,Two_theta
13,1,1,1,5.4328,16.3429
3,0,1,2,4.2082,21.1471
6,0,2,2,3.3269,26.8422
0,0,0,3,3.1366,28.5042
14,1,1,3,2.8372,31.5866
7,0,2,3,2.6098,34.421
4,0,1,4,2.2822,39.5534
18,1,3,3,2.1588,41.9176
17,1,2,4,2.0534,44.1793
1,0,0,5,1.882,48.4481
15,1,1,5,1.8109,50.4805
8,0,2,5,1.7473,52.455
21,1,4,4,1.638,56.2537
19,1,3,5,1.5905,58.0911
5,0,1,6,1.5469,59.8927
11,0,4,5,1.4695,63.4013
23,3,3,5,1.435,65.1108
10,0,3,6,1.4027,66.8035
2,0,0,7,1.3442,70.1243
16,1,1,7,1.3176,71.7561
9,0,2,7,1.2925,73.374
22,2,2,7,1.2463,76.5724
20,1,3,7,1.225,78.1539
12,0,5,6,1.2048,79.7227